# col1=gap_en, col2=gap pos, col3=DCM_en, col4=bragg position, col5=intensity
10.0000   21.5840   9.7500   11.7025   712915.0000
10.0000   21.5840   9.7602   11.6901   721702.0000
10.0000   21.5840   9.7704   11.6777   729004.0000
10.0000   21.5840   9.7806   11.6654   737156.0000
10.0000   21.5840   9.7908   11.6530   745527.0000
10.0000   21.5840   9.8010   11.6407   753377.0000
10.0000   21.5840   9.8112   11.6285   760602.0000
10.0000   21.5840   9.8214   11.6162   768993.0000
10.0000   21.5840   9.8316   11.6040   781173.0000
10.0000   21.5840   9.8418   11.5918   791666.0000
10.0000   21.5840   9.8520   11.5796   801627.0000
10.0000   21.5840   9.8622   11.5675   810914.0000
10.0000   21.5840   9.8724   11.5554   818087.0000
10.0000   21.5840   9.8827   11.5433   816490.0000
10.0000   21.5840   9.8929   11.5312   835456.0000
10.0000   21.5840   9.9031   11.5191   839532.0000
10.0000   21.5840   9.9133   11.5071   837913.0000
10.0000   21.5840   9.9235   11.4951   835294.0000
10.0000   21.5840   9.9337   11.4832   826194.0000
10.0000   21.5840   9.9439   11.4712   817409.0000
10.0000   21.5840   9.9541   11.4593   806631.0000
10.0000   21.5840   9.9643   11.4474   784377.0000
10.0000   21.5840   9.9745   11.4355   760635.0000
10.0000   21.5840   9.9847   11.4237   733555.0000
10.0000   21.5840   9.9949   11.4119   700108.0000
10.0000   21.5840   10.0051   11.4001   661538.0000
10.0000   21.5840   10.0153   11.3883   623990.0000
10.0000   21.5840   10.0255   11.3766   580790.0000
10.0000   21.5840   10.0357   11.3648   534603.0000
10.0000   21.5840   10.0459   11.3531   485210.0000
10.0000   21.5840   10.0561   11.3415   436664.0000
10.0000   21.5840   10.0663   11.3298   387444.0000
10.0000   21.5840   10.0765   11.3182   339637.0000
10.0000   21.5840   10.0867   11.3066   294080.0000
10.0000   21.5840   10.0969   11.2950   253228.0000
10.0000   21.5840   10.1071   11.2835   219708.0000
10.0000   21.5840   10.1173   11.2719   196352.0000
10.0000   21.5840   10.1276   11.2604   180737.0000
10.0000   21.5840   10.1378   11.2489   171092.0000
10.0000   21.5840   10.1480   11.2375   164864.0000
10.0000   21.5840   10.1582   11.2261   157265.0000
10.0000   21.5840   10.1684   11.2146   148299.0000
10.0000   21.5840   10.1786   11.2033   137773.0000
10.0000   21.5840   10.1888   11.1919   125475.0000
10.0000   21.5840   10.1990   11.1805   112169.0000
10.0000   21.5840   10.2092   11.1692   98638.0000
10.0000   21.5840   10.2194   11.1579   86860.0000
10.0000   21.5840   10.2296   11.1467   77219.0000
10.0000   21.5840   10.2398   11.1354   69961.0000
10.0000   21.5840   10.2500   11.1242   66002.0000
